ENVI
description = {
  MODIS Resampling Filter Functions}
samples = 4050
lines   = 36
bands   = 1
header offset = 0
file type = ENVI Spectral Library
data type = 5
interleave = bsq
byte order = 0
wavelength units = Micrometers
reflectance scale factor = 1.000000
z plot titles = {Wavelength, Value}
z plot range = {0.00, 1.00}
band names = {MODIS Band Filter Functions}
spectra names = {
 MODIS Band 1, MODIS Band 2, MODIS Band 3, MODIS Band 4, 
 MODIS Band 5, MODIS Band 6, MODIS Band 7, MODIS Band 8, 
 MODIS Band 9, MODIS Band 10, MODIS Band 11, MODIS Band 12, 
 MODIS Band 13, MODIS Band 14, MODIS Band 15, MODIS Band 16, 
 MODIS Band 17, MODIS Band 18, MODIS Band 19, MODIS Band 20, 
 MODIS Band 21, MODIS Band 22, MODIS Band 23, MODIS Band 24, 
 MODIS Band 25, MODIS Band 26, MODIS Band 27, MODIS Band 28, 
 MODIS Band 29, MODIS Band 30, MODIS Band 31, MODIS Band 32, 
 MODIS Band 33, MODIS Band 34, MODIS Band 35, MODIS Band 36}
wavelength = {
  0.339800,  0.343300,  0.346800,  0.350300,  0.353800,  0.357300,  0.360800,
  0.364300,  0.367800,  0.371300,  0.374800,  0.378300,  0.381800,  0.385300,
  0.388800,  0.392300,  0.395800,  0.399300,  0.402800,  0.406300,  0.409800,
  0.413300,  0.416800,  0.420300,  0.423800,  0.427300,  0.430800,  0.434300,
  0.437800,  0.441300,  0.444800,  0.448300,  0.451800,  0.455300,  0.458800,
  0.462300,  0.465800,  0.469300,  0.472800,  0.476300,  0.479800,  0.483300,
  0.486800,  0.490300,  0.493800,  0.497300,  0.500800,  0.504300,  0.507800,
  0.511300,  0.514800,  0.518300,  0.521800,  0.525300,  0.528800,  0.532300,
  0.535800,  0.539300,  0.542800,  0.546300,  0.549800,  0.553300,  0.556800,
  0.560300,  0.563800,  0.567300,  0.570800,  0.574300,  0.577800,  0.581300,
  0.584800,  0.588300,  0.591800,  0.595300,  0.598800,  0.602300,  0.605800,
  0.609300,  0.612800,  0.616300,  0.619800,  0.623300,  0.626800,  0.630300,
  0.633800,  0.637300,  0.640800,  0.644300,  0.647800,  0.651300,  0.654800,
  0.658300,  0.661800,  0.665300,  0.668800,  0.672300,  0.675800,  0.679300,
  0.682800,  0.686300,  0.689800,  0.693300,  0.696800,  0.700300,  0.703800,
  0.707300,  0.710800,  0.714300,  0.717800,  0.721300,  0.724800,  0.728300,
  0.731800,  0.735300,  0.738800,  0.742300,  0.745800,  0.749300,  0.752800,
  0.756300,  0.759800,  0.763300,  0.766800,  0.770300,  0.773800,  0.777300,
  0.780800,  0.784300,  0.787800,  0.791300,  0.794800,  0.798300,  0.801800,
  0.805300,  0.808800,  0.812300,  0.815800,  0.819300,  0.822800,  0.826300,
  0.829800,  0.833300,  0.836800,  0.840300,  0.843800,  0.847300,  0.850800,
  0.854300,  0.857800,  0.861300,  0.864800,  0.868300,  0.871800,  0.875300,
  0.878800,  0.882300,  0.885800,  0.889300,  0.892800,  0.896300,  0.899800,
  0.903300,  0.906800,  0.910300,  0.913800,  0.917300,  0.920800,  0.924300,
  0.927800,  0.931300,  0.934800,  0.938300,  0.941800,  0.945300,  0.948800,
  0.952300,  0.955800,  0.959300,  0.962800,  0.966300,  0.969800,  0.973300,
  0.976800,  0.980300,  0.983800,  0.987300,  0.990800,  0.994300,  0.997800,
  1.001300,  1.004800,  1.008300,  1.011800,  1.015300,  1.018800,  1.022300,
  1.025800,  1.029300,  1.032800,  1.036300,  1.039800,  1.043300,  1.046800,
  1.050300,  1.053800,  1.057300,  1.060800,  1.064300,  1.067800,  1.071300,
  1.074800,  1.078300,  1.081800,  1.085300,  1.088800,  1.092300,  1.095800,
  1.099300,  1.102800,  1.106300,  1.109800,  1.113300,  1.116800,  1.120300,
  1.123800,  1.127300,  1.130800,  1.134300,  1.137800,  1.141300,  1.144800,
  1.148300,  1.151800,  1.155300,  1.158800,  1.162300,  1.165800,  1.169300,
  1.172800,  1.176300,  1.179800,  1.183300,  1.186800,  1.190300,  1.193800,
  1.197300,  1.200800,  1.204300,  1.207800,  1.211300,  1.214800,  1.218300,
  1.221800,  1.225300,  1.228800,  1.232300,  1.235800,  1.239300,  1.242800,
  1.246300,  1.249800,  1.253300,  1.256800,  1.260300,  1.263800,  1.267300,
  1.270800,  1.274300,  1.277800,  1.281300,  1.284800,  1.288300,  1.291800,
  1.295300,  1.298800,  1.302300,  1.305800,  1.309300,  1.312800,  1.316300,
  1.319800,  1.323300,  1.326800,  1.330300,  1.333800,  1.337300,  1.340800,
  1.344300,  1.347800,  1.351300,  1.354800,  1.358300,  1.361800,  1.365300,
  1.368800,  1.372300,  1.375800,  1.379300,  1.382800,  1.386300,  1.389800,
  1.393300,  1.396800,  1.400300,  1.403800,  1.407300,  1.410800,  1.414300,
  1.417800,  1.421300,  1.424800,  1.428300,  1.431800,  1.435300,  1.438800,
  1.442300,  1.445800,  1.449300,  1.452800,  1.456300,  1.459800,  1.463300,
  1.466800,  1.470300,  1.473800,  1.477300,  1.480800,  1.484300,  1.487800,
  1.491300,  1.494800,  1.498300,  1.501800,  1.505300,  1.508800,  1.512300,
  1.515800,  1.519300,  1.522800,  1.526300,  1.529800,  1.533300,  1.536800,
  1.540300,  1.543800,  1.547300,  1.550800,  1.554300,  1.557800,  1.561300,
  1.564800,  1.568300,  1.571800,  1.575300,  1.578800,  1.582300,  1.585800,
  1.589300,  1.592800,  1.596300,  1.599800,  1.603300,  1.606800,  1.610300,
  1.613800,  1.617300,  1.620800,  1.624300,  1.627800,  1.631300,  1.634800,
  1.638300,  1.641800,  1.645300,  1.648800,  1.652300,  1.655800,  1.659300,
  1.662800,  1.666300,  1.669800,  1.673300,  1.676800,  1.680300,  1.683800,
  1.687300,  1.690800,  1.694300,  1.697800,  1.701300,  1.704800,  1.708300,
  1.711800,  1.715300,  1.718800,  1.722300,  1.725800,  1.729300,  1.732800,
  1.736300,  1.739800,  1.743300,  1.746800,  1.750300,  1.753800,  1.757300,
  1.760800,  1.764300,  1.767800,  1.771300,  1.774800,  1.778300,  1.781800,
  1.785300,  1.788800,  1.792300,  1.795800,  1.799300,  1.802800,  1.806300,
  1.809800,  1.813300,  1.816800,  1.820300,  1.823800,  1.827300,  1.830800,
  1.834300,  1.837800,  1.841300,  1.844800,  1.848300,  1.851800,  1.855300,
  1.858800,  1.862300,  1.865800,  1.869300,  1.872800,  1.876300,  1.879800,
  1.883300,  1.886800,  1.890300,  1.893800,  1.897300,  1.900800,  1.904300,
  1.907800,  1.911300,  1.914800,  1.918300,  1.921800,  1.925300,  1.928800,
  1.932300,  1.935800,  1.939300,  1.942800,  1.946300,  1.949800,  1.953300,
  1.956800,  1.960300,  1.963800,  1.967300,  1.970800,  1.974300,  1.977800,
  1.981300,  1.984800,  1.988300,  1.991800,  1.995300,  1.998800,  2.002300,
  2.005800,  2.009300,  2.012800,  2.016300,  2.019800,  2.023300,  2.026800,
  2.030300,  2.033800,  2.037300,  2.040800,  2.044300,  2.047800,  2.051300,
  2.054800,  2.058300,  2.061800,  2.065300,  2.068800,  2.072300,  2.075800,
  2.079300,  2.082800,  2.086300,  2.089800,  2.093300,  2.096800,  2.100300,
  2.103800,  2.107300,  2.110800,  2.114300,  2.117800,  2.121300,  2.124800,
  2.128300,  2.131800,  2.135300,  2.138800,  2.142300,  2.145800,  2.149300,
  2.152800,  2.156300,  2.159800,  2.163300,  2.166800,  2.170300,  2.173800,
  2.177300,  2.180800,  2.184300,  2.187800,  2.191300,  2.194800,  2.198300,
  2.201800,  2.205300,  2.208800,  2.212300,  2.215800,  2.219300,  2.222800,
  2.226300,  2.229800,  2.233300,  2.236800,  2.240300,  2.243800,  2.247300,
  2.250800,  2.254300,  2.257800,  2.261300,  2.264800,  2.268300,  2.271800,
  2.275300,  2.278800,  2.282300,  2.285800,  2.289300,  2.292800,  2.296300,
  2.299800,  2.303300,  2.306800,  2.310300,  2.313800,  2.317300,  2.320800,
  2.324300,  2.327800,  2.331300,  2.334800,  2.338300,  2.341800,  2.345300,
  2.348800,  2.352300,  2.355800,  2.359300,  2.362800,  2.366300,  2.369800,
  2.373300,  2.376800,  2.380300,  2.383800,  2.387300,  2.390800,  2.394300,
  2.397800,  2.401300,  2.404800,  2.408300,  2.411800,  2.415300,  2.418800,
  2.422300,  2.425800,  2.429300,  2.432800,  2.436300,  2.439800,  2.443300,
  2.446800,  2.450300,  2.453800,  2.457300,  2.460800,  2.464300,  2.467800,
  2.471300,  2.474800,  2.478300,  2.481800,  2.485300,  2.488800,  2.492300,
  2.495800,  2.499300,  2.502800,  2.506300,  2.509800,  2.513300,  2.516800,
  2.520300,  2.523800,  2.527300,  2.530800,  2.534300,  2.537800,  2.541300,
  2.544800,  2.548300,  2.551800,  2.555300,  2.558800,  2.562300,  2.565800,
  2.569300,  2.572800,  2.576300,  2.579800,  2.583300,  2.586800,  2.590300,
  2.593800,  2.597300,  2.600800,  2.604300,  2.607800,  2.611300,  2.614800,
  2.618300,  2.621800,  2.625300,  2.628800,  2.632300,  2.635800,  2.639300,
  2.642800,  2.646300,  2.649800,  2.653300,  2.656800,  2.660300,  2.663800,
  2.667300,  2.670800,  2.674300,  2.677800,  2.681300,  2.684800,  2.688300,
  2.691800,  2.695300,  2.698800,  2.702300,  2.705800,  2.709300,  2.712800,
  2.716300,  2.719800,  2.723300,  2.726800,  2.730300,  2.733800,  2.737300,
  2.740800,  2.744300,  2.747800,  2.751300,  2.754800,  2.758300,  2.761800,
  2.765300,  2.768800,  2.772300,  2.775800,  2.779300,  2.782800,  2.786300,
  2.789800,  2.793300,  2.796800,  2.800300,  2.803800,  2.807300,  2.810800,
  2.814300,  2.817800,  2.821300,  2.824800,  2.828300,  2.831800,  2.835300,
  2.838800,  2.842300,  2.845800,  2.849300,  2.852800,  2.856300,  2.859800,
  2.863300,  2.866800,  2.870300,  2.873800,  2.877300,  2.880800,  2.884300,
  2.887800,  2.891300,  2.894800,  2.898300,  2.901800,  2.905300,  2.908800,
  2.912300,  2.915800,  2.919300,  2.922800,  2.926300,  2.929800,  2.933300,
  2.936800,  2.940300,  2.943800,  2.947300,  2.950800,  2.954300,  2.957800,
  2.961300,  2.964800,  2.968300,  2.971800,  2.975300,  2.978800,  2.982300,
  2.985800,  2.989300,  2.992800,  2.996300,  2.999800,  3.003300,  3.006800,
  3.010300,  3.013800,  3.017300,  3.020800,  3.024300,  3.027800,  3.031300,
  3.034800,  3.038300,  3.041800,  3.045300,  3.048800,  3.052300,  3.055800,
  3.059300,  3.062800,  3.066300,  3.069800,  3.073300,  3.076800,  3.080300,
  3.083800,  3.087300,  3.090800,  3.094300,  3.097800,  3.101300,  3.104800,
  3.108300,  3.111800,  3.115300,  3.118800,  3.122300,  3.125800,  3.129300,
  3.132800,  3.136300,  3.139800,  3.143300,  3.146800,  3.150300,  3.153800,
  3.157300,  3.160800,  3.164300,  3.167800,  3.171300,  3.174800,  3.178300,
  3.181800,  3.185300,  3.188800,  3.192300,  3.195800,  3.199300,  3.202800,
  3.206300,  3.209800,  3.213300,  3.216800,  3.220300,  3.223800,  3.227300,
  3.230800,  3.234300,  3.237800,  3.241300,  3.244800,  3.248300,  3.251800,
  3.255300,  3.258800,  3.262300,  3.265800,  3.269300,  3.272800,  3.276300,
  3.279800,  3.283300,  3.286800,  3.290300,  3.293800,  3.297300,  3.300800,
  3.304300,  3.307800,  3.311300,  3.314800,  3.318300,  3.321800,  3.325300,
  3.328800,  3.332300,  3.335800,  3.339300,  3.342800,  3.346300,  3.349800,
  3.353300,  3.356800,  3.360300,  3.363800,  3.367300,  3.370800,  3.374300,
  3.377800,  3.381300,  3.384800,  3.388300,  3.391800,  3.395300,  3.398800,
  3.402300,  3.405800,  3.409300,  3.412800,  3.416300,  3.419800,  3.423300,
  3.426800,  3.430300,  3.433800,  3.437300,  3.440800,  3.444300,  3.447800,
  3.451300,  3.454800,  3.458300,  3.461800,  3.465300,  3.468800,  3.472300,
  3.475800,  3.479300,  3.482800,  3.486300,  3.489800,  3.493300,  3.496800,
  3.500300,  3.503800,  3.507300,  3.510800,  3.514300,  3.517800,  3.521300,
  3.524800,  3.528300,  3.531800,  3.535300,  3.538800,  3.542300,  3.545800,
  3.549300,  3.552800,  3.556300,  3.559800,  3.563300,  3.566800,  3.570300,
  3.573800,  3.577300,  3.580800,  3.584300,  3.587800,  3.591300,  3.594800,
  3.598300,  3.601800,  3.605300,  3.608800,  3.612300,  3.615800,  3.619300,
  3.622800,  3.626300,  3.629800,  3.633300,  3.636800,  3.640300,  3.643800,
  3.647300,  3.650800,  3.654300,  3.657800,  3.661300,  3.664800,  3.668300,
  3.671800,  3.675300,  3.678800,  3.682300,  3.685800,  3.689300,  3.692800,
  3.696300,  3.699800,  3.703300,  3.706800,  3.710300,  3.713800,  3.717300,
  3.720800,  3.724300,  3.727800,  3.731300,  3.734800,  3.738300,  3.741800,
  3.745300,  3.748800,  3.752300,  3.755800,  3.759300,  3.762800,  3.766300,
  3.769800,  3.773300,  3.776800,  3.780300,  3.783800,  3.787300,  3.790800,
  3.794300,  3.797800,  3.801300,  3.804800,  3.808300,  3.811800,  3.815300,
  3.818800,  3.822300,  3.825800,  3.829300,  3.832800,  3.836300,  3.839800,
  3.843300,  3.846800,  3.850300,  3.853800,  3.857300,  3.860800,  3.864300,
  3.867800,  3.871300,  3.874800,  3.878300,  3.881800,  3.885300,  3.888800,
  3.892300,  3.895800,  3.899300,  3.902800,  3.906300,  3.909800,  3.913300,
  3.916800,  3.920300,  3.923800,  3.927300,  3.930800,  3.934300,  3.937800,
  3.941300,  3.944800,  3.948300,  3.951800,  3.955300,  3.958800,  3.962300,
  3.965800,  3.969300,  3.972800,  3.976300,  3.979800,  3.983300,  3.986800,
  3.990300,  3.993800,  3.997300,  4.000800,  4.004300,  4.007800,  4.011300,
  4.014800,  4.018300,  4.021800,  4.025300,  4.028800,  4.032300,  4.035800,
  4.039300,  4.042800,  4.046300,  4.049800,  4.053300,  4.056800,  4.060300,
  4.063800,  4.067300,  4.070800,  4.074300,  4.077800,  4.081300,  4.084800,
  4.088300,  4.091800,  4.095300,  4.098800,  4.102300,  4.105800,  4.109300,
  4.112800,  4.116300,  4.119800,  4.123300,  4.126800,  4.130300,  4.133800,
  4.137300,  4.140800,  4.144300,  4.147800,  4.151300,  4.154800,  4.158300,
  4.161800,  4.165300,  4.168800,  4.172300,  4.175800,  4.179300,  4.182800,
  4.186300,  4.189800,  4.193300,  4.196800,  4.200300,  4.203800,  4.207300,
  4.210800,  4.214300,  4.217800,  4.221300,  4.224800,  4.228300,  4.231800,
  4.235300,  4.238800,  4.242300,  4.245800,  4.249300,  4.252800,  4.256300,
  4.259800,  4.263300,  4.266800,  4.270300,  4.273800,  4.277300,  4.280800,
  4.284300,  4.287800,  4.291300,  4.294800,  4.298300,  4.301800,  4.305300,
  4.308800,  4.312300,  4.315800,  4.319300,  4.322800,  4.326300,  4.329800,
  4.333300,  4.336800,  4.340300,  4.343800,  4.347300,  4.350800,  4.354300,
  4.357800,  4.361300,  4.364800,  4.368300,  4.371800,  4.375300,  4.378800,
  4.382300,  4.385800,  4.389300,  4.392800,  4.396300,  4.399800,  4.403300,
  4.406800,  4.410300,  4.413800,  4.417300,  4.420800,  4.424300,  4.427800,
  4.431300,  4.434800,  4.438300,  4.441800,  4.445300,  4.448800,  4.452300,
  4.455800,  4.459300,  4.462800,  4.466300,  4.469800,  4.473300,  4.476800,
  4.480300,  4.483800,  4.487300,  4.490800,  4.494300,  4.497800,  4.501300,
  4.504800,  4.508300,  4.511800,  4.515300,  4.518800,  4.522300,  4.525800,
  4.529300,  4.532800,  4.536300,  4.539800,  4.543300,  4.546800,  4.550300,
  4.553800,  4.557300,  4.560800,  4.564300,  4.567800,  4.571300,  4.574800,
  4.578300,  4.581800,  4.585300,  4.588800,  4.592300,  4.595800,  4.599300,
  4.602800,  4.606300,  4.609800,  4.613300,  4.616800,  4.620300,  4.623800,
  4.627300,  4.630800,  4.634300,  4.637800,  4.641300,  4.644800,  4.648300,
  4.651800,  4.655300,  4.658800,  4.662300,  4.665800,  4.669300,  4.672800,
  4.676300,  4.679800,  4.683300,  4.686800,  4.690300,  4.693800,  4.697300,
  4.700800,  4.704300,  4.707800,  4.711300,  4.714800,  4.718300,  4.721800,
  4.725300,  4.728800,  4.732300,  4.735800,  4.739300,  4.742800,  4.746300,
  4.749800,  4.753300,  4.756800,  4.760300,  4.763800,  4.767300,  4.770800,
  4.774300,  4.777800,  4.781300,  4.784800,  4.788300,  4.791800,  4.795300,
  4.798800,  4.802300,  4.805800,  4.809300,  4.812800,  4.816300,  4.819800,
  4.823300,  4.826800,  4.830300,  4.833800,  4.837300,  4.840800,  4.844300,
  4.847800,  4.851300,  4.854800,  4.858300,  4.861800,  4.865300,  4.868800,
  4.872300,  4.875800,  4.879300,  4.882800,  4.886300,  4.889800,  4.893300,
  4.896800,  4.900300,  4.903800,  4.907300,  4.910800,  4.914300,  4.917800,
  4.921300,  4.924800,  4.928300,  4.931800,  4.935300,  4.938800,  4.942300,
  4.945800,  4.949300,  4.952800,  4.956300,  4.959800,  4.963300,  4.966800,
  4.970300,  4.973800,  4.977300,  4.980800,  4.984300,  4.987800,  4.991300,
  4.994800,  4.998300,  5.001800,  5.005300,  5.008800,  5.012300,  5.015800,
  5.019300,  5.022800,  5.026300,  5.029800,  5.033300,  5.036800,  5.040300,
  5.043800,  5.047300,  5.050800,  5.054300,  5.057800,  5.061300,  5.064800,
  5.068300,  5.071800,  5.075300,  5.078800,  5.082300,  5.085800,  5.089300,
  5.092800,  5.096300,  5.099800,  5.103300,  5.106800,  5.110300,  5.113800,
  5.117300,  5.120800,  5.124300,  5.127800,  5.131300,  5.134800,  5.138300,
  5.141800,  5.145300,  5.148800,  5.152300,  5.155800,  5.159300,  5.162800,
  5.166300,  5.169800,  5.173300,  5.176800,  5.180300,  5.183800,  5.187300,
  5.190800,  5.194300,  5.197800,  5.201300,  5.204800,  5.208300,  5.211800,
  5.215300,  5.218800,  5.222300,  5.225800,  5.229300,  5.232800,  5.236300,
  5.239800,  5.243300,  5.246800,  5.250300,  5.253800,  5.257300,  5.260800,
  5.264300,  5.267800,  5.271300,  5.274800,  5.278300,  5.281800,  5.285300,
  5.288800,  5.292300,  5.295800,  5.299300,  5.302800,  5.306300,  5.309800,
  5.313300,  5.316800,  5.320300,  5.323800,  5.327300,  5.330800,  5.334300,
  5.337800,  5.341300,  5.344800,  5.348300,  5.351800,  5.355300,  5.358800,
  5.362300,  5.365800,  5.369300,  5.372800,  5.376300,  5.379800,  5.383300,
  5.386800,  5.390300,  5.393800,  5.397300,  5.400800,  5.404300,  5.407800,
  5.411300,  5.414800,  5.418300,  5.421800,  5.425300,  5.428800,  5.432300,
  5.435800,  5.439300,  5.442800,  5.446300,  5.449800,  5.453300,  5.456800,
  5.460300,  5.463800,  5.467300,  5.470800,  5.474300,  5.477800,  5.481300,
  5.484800,  5.488300,  5.491800,  5.495300,  5.498800,  5.502300,  5.505800,
  5.509300,  5.512800,  5.516300,  5.519800,  5.523300,  5.526800,  5.530300,
  5.533800,  5.537300,  5.540800,  5.544300,  5.547800,  5.551300,  5.554800,
  5.558300,  5.561800,  5.565300,  5.568800,  5.572300,  5.575800,  5.579300,
  5.582800,  5.586300,  5.589800,  5.593300,  5.596800,  5.600300,  5.603800,
  5.607300,  5.610800,  5.614300,  5.617800,  5.621300,  5.624800,  5.628300,
  5.631800,  5.635300,  5.638800,  5.642300,  5.645800,  5.649300,  5.652800,
  5.656300,  5.659800,  5.663300,  5.666800,  5.670300,  5.673800,  5.677300,
  5.680800,  5.684300,  5.687800,  5.691300,  5.694800,  5.698300,  5.701800,
  5.705300,  5.708800,  5.712300,  5.715800,  5.719300,  5.722800,  5.726300,
  5.729800,  5.733300,  5.736800,  5.740300,  5.743800,  5.747300,  5.750800,
  5.754300,  5.757800,  5.761300,  5.764800,  5.768300,  5.771800,  5.775300,
  5.778800,  5.782300,  5.785800,  5.789300,  5.792800,  5.796300,  5.799800,
  5.803300,  5.806800,  5.810300,  5.813800,  5.817300,  5.820800,  5.824300,
  5.827800,  5.831300,  5.834800,  5.838300,  5.841800,  5.845300,  5.848800,
  5.852300,  5.855800,  5.859300,  5.862800,  5.866300,  5.869800,  5.873300,
  5.876800,  5.880300,  5.883800,  5.887300,  5.890800,  5.894300,  5.897800,
  5.901300,  5.904800,  5.908300,  5.911800,  5.915300,  5.918800,  5.922300,
  5.925800,  5.929300,  5.932800,  5.936300,  5.939800,  5.943300,  5.946800,
  5.950300,  5.953800,  5.957300,  5.960800,  5.964300,  5.967800,  5.971300,
  5.974800,  5.978300,  5.981800,  5.985300,  5.988800,  5.992300,  5.995800,
  5.999300,  6.002800,  6.006300,  6.009800,  6.013300,  6.016800,  6.020300,
  6.023800,  6.027300,  6.030800,  6.034300,  6.037800,  6.041300,  6.044800,
  6.048300,  6.051800,  6.055300,  6.058800,  6.062300,  6.065800,  6.069300,
  6.072800,  6.076300,  6.079800,  6.083300,  6.086800,  6.090300,  6.093800,
  6.097300,  6.100800,  6.104300,  6.107800,  6.111300,  6.114800,  6.118300,
  6.121800,  6.125300,  6.128800,  6.132300,  6.135800,  6.139300,  6.142800,
  6.146300,  6.149800,  6.153300,  6.156800,  6.160300,  6.163800,  6.167300,
  6.170800,  6.174300,  6.177800,  6.181300,  6.184800,  6.188300,  6.191800,
  6.195300,  6.198800,  6.202300,  6.205800,  6.209300,  6.212800,  6.216300,
  6.219800,  6.223300,  6.226800,  6.230300,  6.233800,  6.237300,  6.240800,
  6.244300,  6.247800,  6.251300,  6.254800,  6.258300,  6.261800,  6.265300,
  6.268800,  6.272300,  6.275800,  6.279300,  6.282800,  6.286300,  6.289800,
  6.293300,  6.296800,  6.300300,  6.303800,  6.307300,  6.310800,  6.314300,
