ENVI
description = {
             NPP VIIRS Resampling Filter Functions}
samples=       12676
lines= 21
bands=1
headeroffset = 0
file type = ENVI Spectral Library
data type = 4
interleave = bsq
byte order = 0
wavelength units = Micrometers
z plot titles = {Wavelength, Percent Normalized Spectral Response}
z plot range = {0.00, 1.00}
reflectance scale factor = 1.0
band names = {
             NPP VIIRS Band Filter Functions}
spectra names = {
I1, I2, I3, I4, I5, M1, M2, M3 ,M4, M5, M6, M7, M8, M9, M10, M11, M12, M13
,M14, M15, M16 }
wavelength ={
     0.361000,     0.362000,     0.363000,     0.364000,     0.365000,
     0.366000,     0.367000,     0.368000,     0.369000,     0.370000,
     0.371000,     0.372000,     0.373000,     0.374000,     0.375000,
     0.376000,     0.377000,     0.378000,     0.379000,     0.380000,
     0.381000,     0.382000,     0.383000,     0.384000,     0.385000,
     0.386000,     0.387000,     0.388000,     0.389000,     0.390000,
     0.391000,     0.392000,     0.393000,     0.394000,     0.395000,
     0.396000,     0.397000,     0.398000,     0.399000,     0.400000,
     0.401000,     0.402000,     0.403000,     0.404000,     0.405000,
     0.406000,     0.407000,     0.408000,     0.409000,     0.410000,
     0.411000,     0.412000,     0.413000,     0.414000,     0.415000,
     0.416000,     0.417000,     0.418000,     0.419000,     0.420000,
     0.421000,     0.422000,     0.423000,     0.424000,     0.425000,
     0.426000,     0.427000,     0.428000,     0.429000,     0.430000,
     0.431000,     0.432000,     0.433000,     0.434000,     0.435000,
     0.436000,     0.437000,     0.438000,     0.439000,     0.440000,
     0.441000,     0.442000,     0.443000,     0.444000,     0.445000,
     0.446000,     0.447000,     0.448000,     0.449000,     0.450000,
     0.451000,     0.452000,     0.453000,     0.454000,     0.455000,
     0.456000,     0.457000,     0.458000,     0.459000,     0.460000,
     0.461000,     0.462000,     0.463000,     0.464000,     0.465000,
     0.466000,     0.467000,     0.468000,     0.469000,     0.470000,
     0.471000,     0.472000,     0.473000,     0.474000,     0.475000,
     0.476000,     0.477000,     0.478000,     0.479000,     0.480000,
     0.481000,     0.482000,     0.483000,     0.484000,     0.485000,
     0.486000,     0.487000,     0.488000,     0.489000,     0.490000,
     0.491000,     0.492000,     0.493000,     0.494000,     0.495000,
     0.496000,     0.497000,     0.498000,     0.499000,     0.500000,
     0.501000,     0.502000,     0.503000,     0.504000,     0.505000,
     0.506000,     0.507000,     0.508000,     0.509000,     0.510000,
     0.511000,     0.512000,     0.513000,     0.514000,     0.515000,
     0.516000,     0.517000,     0.518000,     0.519000,     0.520000,
     0.521000,     0.522000,     0.523000,     0.524000,     0.525000,
     0.526000,     0.527000,     0.528000,     0.529000,     0.530000,
     0.531000,     0.532000,     0.533000,     0.534000,     0.535000,
     0.536000,     0.537000,     0.538000,     0.539000,     0.540000,
     0.541000,     0.542000,     0.543000,     0.544000,     0.545000,
     0.546000,     0.547000,     0.548000,     0.549000,     0.550000,
     0.551000,     0.552000,     0.553000,     0.554000,     0.555000,
     0.556000,     0.557000,     0.558000,     0.559000,     0.560000,
     0.561000,     0.562000,     0.563000,     0.564000,     0.565000,
     0.566000,     0.567000,     0.568000,     0.569000,     0.570000,
     0.571000,     0.572000,     0.573000,     0.574000,     0.575000,
     0.576000,     0.577000,     0.578000,     0.579000,     0.580000,
     0.581000,     0.582000,     0.583000,     0.584000,     0.585000,
     0.586000,     0.587000,     0.588000,     0.589000,     0.590000,
     0.591000,     0.592000,     0.593000,     0.594000,     0.595000,
     0.596000,     0.597000,     0.598000,     0.599000,     0.600000,
     0.601000,     0.602000,     0.603000,     0.604000,     0.605000,
     0.606000,     0.607000,     0.608000,     0.609000,     0.610000,
     0.611000,     0.612000,     0.613000,     0.614000,     0.615000,
     0.616000,     0.617000,     0.618000,     0.619000,     0.620000,
     0.621000,     0.622000,     0.623000,     0.624000,     0.625000,
     0.626000,     0.627000,     0.628000,     0.629000,     0.630000,
     0.631000,     0.632000,     0.633000,     0.634000,     0.635000,
     0.636000,     0.637000,     0.638000,     0.639000,     0.640000,
     0.641000,     0.642000,     0.643000,     0.644000,     0.645000,
     0.646000,     0.647000,     0.648000,     0.649000,     0.650000,
     0.651000,     0.652000,     0.653000,     0.654000,     0.655000,
     0.656000,     0.657000,     0.658000,     0.659000,     0.660000,
     0.661000,     0.662000,     0.663000,     0.664000,     0.665000,
     0.666000,     0.667000,     0.668000,     0.669000,     0.670000,
     0.671000,     0.672000,     0.673000,     0.674000,     0.675000,
     0.676000,     0.677000,     0.678000,     0.679000,     0.680000,
     0.681000,     0.682000,     0.683000,     0.684000,     0.685000,
     0.686000,     0.687000,     0.688000,     0.689000,     0.690000,
     0.691000,     0.692000,     0.693000,     0.694000,     0.695000,
     0.696000,     0.697000,     0.698000,     0.699000,     0.700000,
     0.701000,     0.702000,     0.703000,     0.704000,     0.705000,
     0.706000,     0.707000,     0.708000,     0.709000,     0.710000,
     0.711000,     0.712000,     0.713000,     0.714000,     0.715000,
     0.716000,     0.717000,     0.718000,     0.719000,     0.720000,
     0.721000,     0.722000,     0.723000,     0.724000,     0.725000,
     0.726000,     0.727000,     0.728000,     0.729000,     0.730000,
     0.731000,     0.732000,     0.733000,     0.734000,     0.735000,
     0.736000,     0.737000,     0.738000,     0.739000,     0.740000,
     0.741000,     0.742000,     0.743000,     0.744000,     0.745000,
     0.746000,     0.747000,     0.748000,     0.749000,     0.750000,
     0.751000,     0.752000,     0.753000,     0.754000,     0.755000,
     0.756000,     0.757000,     0.758000,     0.759000,     0.760000,
     0.761000,     0.762000,     0.763000,     0.764000,     0.765000,
     0.766000,     0.767000,     0.768000,     0.769000,     0.770000,
     0.771000,     0.772000,     0.773000,     0.774000,     0.775000,
     0.776000,     0.777000,     0.778000,     0.779000,     0.780000,
     0.781000,     0.782000,     0.783000,     0.784000,     0.785000,
     0.786000,     0.787000,     0.788000,     0.789000,     0.790000,
     0.791000,     0.792000,     0.793000,     0.794000,     0.795000,
     0.796000,     0.797000,     0.798000,     0.799000,     0.800000,
     0.801000,     0.802000,     0.803000,     0.804000,     0.805000,
     0.806000,     0.807000,     0.808000,     0.809000,     0.810000,
     0.811000,     0.812000,     0.813000,     0.814000,     0.815000,
     0.816000,     0.817000,     0.818000,     0.819000,     0.820000,
     0.821000,     0.822000,     0.823000,     0.824000,     0.825000,
     0.826000,     0.827000,     0.828000,     0.829000,     0.830000,
     0.831000,     0.832000,     0.833000,     0.834000,     0.835000,
     0.836000,     0.837000,     0.838000,     0.839000,     0.840000,
     0.841000,     0.842000,     0.843000,     0.844000,     0.845000,
     0.846000,     0.847000,     0.848000,     0.849000,     0.850000,
     0.851000,     0.852000,     0.853000,     0.854000,     0.855000,
     0.856000,     0.857000,     0.858000,     0.859000,     0.860000,
     0.861000,     0.862000,     0.863000,     0.864000,     0.865000,
     0.866000,     0.867000,     0.868000,     0.869000,     0.870000,
     0.871000,     0.872000,     0.873000,     0.874000,     0.875000,
     0.876000,     0.877000,     0.878000,     0.879000,     0.880000,
     0.881000,     0.882000,     0.883000,     0.884000,     0.885000,
     0.886000,     0.887000,     0.888000,     0.889000,     0.890000,
     0.891000,     0.892000,     0.893000,     0.894000,     0.895000,
     0.896000,     0.897000,     0.898000,     0.899000,     0.900000,
     0.901000,     0.902000,     0.903000,     0.904000,     0.905000,
     0.906000,     0.907000,     0.908000,     0.909000,     0.910000,
     0.911000,     0.912000,     0.913000,     0.914000,     0.915000,
     0.916000,     0.917000,     0.918000,     0.919000,     0.920000,
     0.921000,     0.922000,     0.923000,     0.924000,     0.925000,
     0.926000,     0.927000,     0.928000,     0.929000,     0.930000,
     0.931000,     0.932000,     0.933000,     0.934000,     0.935000,
     0.936000,     0.937000,     0.938000,     0.939000,     0.940000,
     0.941000,     0.942000,     0.943000,     0.944000,     0.945000,
     0.946000,     0.947000,     0.948000,     0.949000,     0.950000,
     0.951000,     0.952000,     0.953000,     0.954000,     0.955000,
     0.956000,     0.957000,     0.958000,     0.959000,     0.960000,
     0.961000,     0.962000,     0.963000,     0.964000,     0.965000,
     0.966000,     0.967000,     0.968000,     0.969000,     0.970000,
     0.971000,     0.972000,     0.973000,     0.974000,     0.975000,
     0.976000,     0.977000,     0.978000,     0.979000,     0.980000,
     0.981000,     0.982000,     0.983000,     0.984000,     0.985000,
     0.986000,     0.987000,     0.988000,     0.989000,     0.990000,
     0.991000,     0.992000,     0.993000,     0.994000,     0.995000,
     0.996000,     0.997000,     0.998000,     0.999000,      1.00000,
      1.00100,      1.00200,      1.00300,      1.00400,      1.00500,
      1.00600,      1.00700,      1.00800,      1.00900,      1.01000,
      1.01100,      1.01200,      1.01300,      1.01400,      1.01500,
      1.01600,      1.01700,      1.01800,      1.01900,      1.02000,
      1.02100,      1.02200,      1.02300,      1.02400,      1.02500,
      1.02600,      1.02700,      1.02800,      1.02900,      1.03000,
      1.03100,      1.03200,      1.03300,      1.03400,      1.03500,
      1.03600,      1.03700,      1.03800,      1.03900,      1.04000,
      1.04100,      1.04200,      1.04300,      1.04400,      1.04500,
      1.04600,      1.04700,      1.04800,      1.04900,      1.05000,
      1.05100,      1.05200,      1.05300,      1.05400,      1.05500,
      1.05600,      1.05700,      1.05800,      1.05900,      1.06000,
      1.06100,      1.06200,      1.06300,      1.06400,      1.06500,
      1.06600,      1.06700,      1.06800,      1.06900,      1.07000,
      1.07100,      1.07200,      1.07300,      1.07400,      1.07500,
      1.07600,      1.07700,      1.07800,      1.07900,      1.08000,
      1.08100,      1.08200,      1.08300,      1.08400,      1.08500,
      1.08600,      1.08700,      1.08800,      1.08900,      1.09000,
      1.09100,      1.09200,      1.09300,      1.09400,      1.09500,
      1.09600,      1.09700,      1.09800,      1.09900,      1.10000,
      1.10100,      1.10200,      1.10300,      1.10400,      1.10500,
      1.10600,      1.10700,      1.10800,      1.10900,      1.11000,
      1.11100,      1.11200,      1.11300,      1.11400,      1.11500,
      1.11600,      1.11700,      1.11800,      1.11900,      1.12000,
      1.12100,      1.12200,      1.12300,      1.12400,      1.12500,
      1.12600,      1.12700,      1.12800,      1.12900,      1.13000,
      1.13100,      1.13200,      1.13300,      1.13400,      1.13500,
      1.13600,      1.13700,      1.13800,      1.13900,      1.14000,
      1.14100,      1.14200,      1.14300,      1.14400,      1.14500,
      1.14600,      1.14700,      1.14800,      1.14900,      1.15000,
      1.15100,      1.15200,      1.15300,      1.15400,      1.15500,
      1.15600,      1.15700,      1.15800,      1.15900,      1.16000,
      1.16100,      1.16200,      1.16300,      1.16400,      1.16500,
      1.16600,      1.16700,      1.16800,      1.16900,      1.17000,
      1.17100,      1.17200,      1.17300,      1.17400,      1.17500,
      1.17600,      1.17700,      1.17800,      1.17900,      1.18000,
      1.18100,      1.18200,      1.18300,      1.18400,      1.18500,
      1.18600,      1.18700,      1.18800,      1.18900,      1.19000,
      1.19100,      1.19200,      1.19300,      1.19400,      1.19500,
      1.19600,      1.19700,      1.19800,      1.19900,      1.20000,
      1.20100,      1.20200,      1.20300,      1.20400,      1.20500,
      1.20600,      1.20700,      1.20800,      1.20900,      1.21000,
      1.21100,      1.21200,      1.21300,      1.21400,      1.21500,
      1.21600,      1.21700,      1.21800,      1.21900,      1.22000,
      1.22100,      1.22200,      1.22300,      1.22400,      1.22500,
      1.22600,      1.22700,      1.22800,      1.22900,      1.23000,
      1.23100,      1.23200,      1.23300,      1.23400,      1.23500,
      1.23600,      1.23700,      1.23800,      1.23900,      1.24000,
      1.24100,      1.24200,      1.24300,      1.24400,      1.24500,
      1.24600,      1.24700,      1.24800,      1.24900,      1.25000,
      1.25100,      1.25200,      1.25300,      1.25400,      1.25500,
      1.25600,      1.25700,      1.25800,      1.25900,      1.26000,
      1.26100,      1.26200,      1.26300,      1.26400,      1.26500,
      1.26600,      1.26700,      1.26800,      1.26900,      1.27000,
      1.27100,      1.27200,      1.27300,      1.27400,      1.27500,
      1.27600,      1.27700,      1.27800,      1.27900,      1.28000,
      1.28100,      1.28200,      1.28300,      1.28400,      1.28500,
      1.28600,      1.28700,      1.28800,      1.28900,      1.29000,
      1.29100,      1.29200,      1.29300,      1.29400,      1.29500,
      1.29600,      1.29700,      1.29800,      1.29900,      1.30000,
      1.30100,      1.30200,      1.30300,      1.30400,      1.30500,
      1.30600,      1.30700,      1.30800,      1.30900,      1.31000,
      1.31100,      1.31200,      1.31300,      1.31400,      1.31500,
      1.31600,      1.31700,      1.31800,      1.31900,      1.32000,
      1.32100,      1.32200,      1.32300,      1.32400,      1.32500,
      1.32600,      1.32700,      1.32800,      1.32900,      1.33000,
      1.33100,      1.33200,      1.33300,      1.33400,      1.33500,
      1.33600,      1.33700,      1.33800,      1.33900,      1.34000,
      1.34100,      1.34200,      1.34300,      1.34400,      1.34500,
      1.34600,      1.34700,      1.34800,      1.34900,      1.35000,
      1.35100,      1.35200,      1.35300,      1.35400,      1.35500,
      1.35600,      1.35700,      1.35800,      1.35900,      1.36000,
      1.36100,      1.36200,      1.36300,      1.36400,      1.36500,
      1.36600,      1.36700,      1.36800,      1.36900,      1.37000,
      1.37100,      1.37200,      1.37300,      1.37400,      1.37500,
      1.37600,      1.37700,      1.37800,      1.37900,      1.38000,
      1.38100,      1.38200,      1.38300,      1.38400,      1.38500,
      1.38600,      1.38700,      1.38800,      1.38900,      1.39000,
      1.39100,      1.39200,      1.39300,      1.39400,      1.39500,
      1.39600,      1.39700,      1.39800,      1.39900,      1.40000,
      1.40100,      1.40200,      1.40300,      1.40400,      1.40500,
      1.40600,      1.40700,      1.40800,      1.40900,      1.41000,
      1.41100,      1.41200,      1.41300,      1.41400,      1.41500,
      1.41600,      1.41700,      1.41800,      1.41900,      1.42000,
      1.42100,      1.42200,      1.42300,      1.42400,      1.42500,
      1.42600,      1.42700,      1.42800,      1.42900,      1.43000,
      1.43100,      1.43200,      1.43300,      1.43400,      1.43500,
      1.43600,      1.43700,      1.43800,      1.43900,      1.44000,
      1.44100,      1.44200,      1.44300,      1.44400,      1.44500,
      1.44600,      1.44700,      1.44800,      1.44900,      1.45000,
      1.45100,      1.45200,      1.45300,      1.45400,      1.45500,
      1.45600,      1.45700,      1.45800,      1.45900,      1.46000,
      1.46100,      1.46200,      1.46300,      1.46400,      1.46500,
      1.46600,      1.46700,      1.46800,      1.46900,      1.47000,
      1.47100,      1.47200,      1.47300,      1.47400,      1.47500,
      1.47600,      1.47700,      1.47800,      1.47900,      1.48000,
      1.48100,      1.48200,      1.48300,      1.48400,      1.48500,
      1.48600,      1.48700,      1.48800,      1.48900,      1.49000,
      1.49100,      1.49200,      1.49300,      1.49400,      1.49500,
      1.49600,      1.49700,      1.49800,      1.49900,      1.50000,
      1.50100,      1.50200,      1.50300,      1.50400,      1.50500,
      1.50600,      1.50700,      1.50800,      1.50900,      1.51000,
      1.51100,      1.51200,      1.51300,      1.51400,      1.51500,
      1.51600,      1.51700,      1.51800,      1.51900,      1.52000,
      1.52100,      1.52200,      1.52300,      1.52400,      1.52500,
      1.52600,      1.52700,      1.52800,      1.52900,      1.53000,
      1.53100,      1.53200,      1.53300,      1.53400,      1.53500,
      1.53600,      1.53700,      1.53800,      1.53900,      1.54000,
      1.54100,      1.54200,      1.54300,      1.54400,      1.54500,
      1.54600,      1.54700,      1.54800,      1.54900,      1.55000,
      1.55100,      1.55200,      1.55300,      1.55400,      1.55500,
      1.55600,      1.55700,      1.55800,      1.55900,      1.56000,
      1.56100,      1.56200,      1.56300,      1.56400,      1.56500,
      1.56600,      1.56700,      1.56800,      1.56900,      1.57000,
      1.57100,      1.57200,      1.57300,      1.57400,      1.57500,
      1.57600,      1.57700,      1.57800,      1.57900,      1.58000,
      1.58100,      1.58200,      1.58300,      1.58400,      1.58500,
      1.58600,      1.58700,      1.58800,      1.58900,      1.59000,
      1.59100,      1.59200,      1.59300,      1.59400,      1.59500,
      1.59600,      1.59700,      1.59800,      1.59900,      1.60000,
      1.60100,      1.60200,      1.60300,      1.60400,      1.60500,
      1.60600,      1.60700,      1.60800,      1.60900,      1.61000,
      1.61100,      1.61200,      1.61300,      1.61400,      1.61500,
      1.61600,      1.61700,      1.61800,      1.61900,      1.62000,
      1.62100,      1.62200,      1.62300,      1.62400,      1.62500,
      1.62600,      1.62700,      1.62800,      1.62900,      1.63000,
      1.63100,      1.63200,      1.63300,      1.63400,      1.63500,
      1.63600,      1.63700,      1.63800,      1.63900,      1.64000,
      1.64100,      1.64200,      1.64300,      1.64400,      1.64500,
      1.64600,      1.64700,      1.64800,      1.64900,      1.65000,
      1.65100,      1.65200,      1.65300,      1.65400,      1.65500,
      1.65600,      1.65700,      1.65800,      1.65900,      1.66000,
      1.66100,      1.66200,      1.66300,      1.66400,      1.66500,
      1.66600,      1.66700,      1.66800,      1.66900,      1.67000,
      1.67100,      1.67200,      1.67300,      1.67400,      1.67500,
      1.67600,      1.67700,      1.67800,      1.67900,      1.68000,
      1.68100,      1.68200,      1.68300,      1.68400,      1.68500,
      1.68600,      1.68700,      1.68800,      1.68900,      1.69000,
      1.69100,      1.69200,      1.69300,      1.69400,      1.69500,
      1.69600,      1.69700,      1.69800,      1.69900,      1.70000,
      1.70100,      1.70200,      1.70300,      1.70400,      1.70500,
      1.70600,      1.70700,      1.70800,      1.70900,      1.71000,
      1.71100,      1.71200,      1.71300,      1.71400,      1.71500,
      1.71600,      1.71700,      1.71800,      1.71900,      1.72000,
      1.72100,      1.72200,      1.72300,      1.72400,      1.72500,
