ENVI ASCII Plot File [Wed Aug 30 18:04:21 2017]
Column 1: Wavelength
Column 2: Red clay tile 1~~1
Column 3: Red clay tile 2~~2
Column 4: Red clay tile 3~~3
Column 5: Red clay tile 4~~4
Column 6: Red cement tile 1~~5
Column 7: Red cement tile 2~~6
Column 8: Red cement tile 3~~7
Column 9: Bitumen 1~~8
Column 10: Bitumen 2~~9
Column 11: Bitumen 3~~10
Column 12: Bitumen 4~~11
Column 13: Bitumen 5~~12
Column 14: Brown tile~~13
Column 15: Black tile~~14
Column 16: Brown shingle~~15
Column 17: White roof material (polyethylene)~~16
Column 18: White roof material (unknown) 1~~17
Column 19: White roof material (unknown) 2~~18
Column 20: White roof material (unknown) 3~~19
Column 21: White roof material (unknown) 4~~20
Column 22: Greenish roof material (unknown)~~21
Column 23: Light gray roof material (unknown)~~22
Column 24: Zinc~~23
Column 25: Asphalt 1~~24
Column 26: Asphalt 2~~25
Column 27: Asphalt 3~~26
Column 28: Asphalt 4~~27
Column 29: Concrete 1~~28
Column 30: Concrete 2~~29
Column 31: Concrete 3~~30
Column 32: Grass (intensively manicured) 1~~31
Column 33: Grass (intensively manicured) 2~~32
Column 34: Grass (extensively manicured)~~33
Column 35: Grass (agricultural grassland) 1~~34
Column 36: Grass (agricultural grassland) 2~~35
Column 37: Grass (agricultural grassland)3~~36
Column 38: Grass (meadow clover) 1~~37
Column 39: Grass (meadow clover) 2~~38
Column 40: Grass (meadow alfalfa/lucerne)~~39
Column 41: Grass (dry) 1~~40
Column 42: Grass (dry) 2~~41
Column 43: Grass (dry agricultural grassland)~~42
Column 44: Sunflower~~43
Column 45: Corn~~44
Column 46: Sorghum~~45
Column 47: Sugarbeet 1~~46
Column 48: Sugarbeet 2~~47
Column 49: Potatoes~~48
Column 50: Deciduous tree 1~~49
Column 51: Deciduous tree 2~~1
Column 52: Deciduous tree 3~~2
Column 53: Deciduous tree 4~~3
Column 54: Deciduous tree 5~~4
Column 55: Deciduous tree 6~~5
Column 56: Deciduous tree 7~~6
Column 57: Deciduous tree 8~~7
Column 58: Deciduous tree 9~~8
Column 59: Deciduous tree 10~~9
Column 60: Deciduous tree 11~~10
Column 61: Coniferous tree 1~~11
Column 62: Coniferous tree 2~~12
Column 63: Bare soil 1~~13
Column 64: Bare soil 2~~14
Column 65: Sand (playground) 1~~15
Column 66: Sand (playground) 2~~16
Column 67: Red sand (cinder field)~~17
Column 68: Red sand (cinder court) 1~~18
Column 69: Red sand (cinder court) 2~~19
Column 70: Railtrack 1~~20
Column 71: Railtrack 2~~21
Column 72: Artificial turf 1~~22
Column 73: Artificial turf 2~~23
Column 74: Tartan (sports ground)~~24
Column 75: Water1~~25
Column 76: Water 2~~26
  0.460000   589.956120   588.689111   546.536259   454.103351   422.880463   433.621481   486.642309   742.143691   400.336944   665.290430   590.435751   691.555887   439.424254   479.961671   477.017090  1749.725491  1611.930430  1940.182149  2573.605478  3949.701488   695.954859  1425.409466   910.795256   536.091514   488.454588   539.060310   548.718162   867.020488  1039.810032  1737.806499   248.314347   294.245128   449.767783   246.102996   324.562639   379.310213   295.033511   275.614932   310.668964   395.953767   613.910146   366.213284   341.942944   268.502571   274.868086   523.652099   385.204479   415.906012   234.715175   218.840465   249.078739   236.688461   206.600241   182.610415   220.127665   163.134784   237.043835   128.989937   105.667580   196.016785   193.860568   825.789273   821.522027   924.348459   897.476375   609.673187   462.366156   507.697091   655.790120   372.659676   297.939628   563.439988   414.543524   180.832725  3503.098786
  0.465000   655.978173   656.148270   609.815791   504.913069   471.232049   483.249463   539.538078   829.738528   442.599580   746.023729   662.071258   776.361451   491.289422   533.916838   531.353541  1957.434565  1804.235727  2175.469846  2889.628708  4430.140853   777.278021  1593.298912  1018.452495   594.033860   542.502254   602.298267   613.404252   968.386754  1163.297817  1962.565780   276.628640   328.917466   506.233610   276.539922   363.724343   426.747799   328.541808   309.328586   348.160751   446.179807   692.909136   415.427200   388.512909   301.808566   310.935993   589.012131   429.247916   464.102700   261.228196   243.728850   277.245753   259.807538   232.595596   205.892790   245.751403   181.848761   264.885984   143.550327   117.616253   216.748286   215.289891   931.949541   928.098783  1046.122611  1012.201309   683.850199   518.284552   568.606816   733.971670   416.083187   333.311409   644.409060   460.783616   200.411640  3916.492462
  0.470000   656.598732   657.877401   612.329245   505.044945   472.577810   483.976342   538.413264   834.045187   440.487936   752.615035   666.851178   785.016119   493.695438   534.081049   532.305948  1969.582736  1816.817969  2194.823921  2920.085788  4471.153021   781.192482  1602.078676  1024.424583   592.267029   541.934408   605.388395   617.108308   972.475559  1170.678064  1995.999664   277.219955   331.050195   513.092875   279.714055   366.849862   432.357192   329.028629   312.317051   350.753777   452.612862   704.636723   424.719080   397.649072   305.465404   315.980166   596.519746   430.513956   466.184430   261.098165   243.873578   277.312789   256.232880   235.278029   208.185799   246.434454   182.373486   266.312081   143.692754   117.984489   215.525087   214.820113   947.011635   944.234878  1066.302136  1028.632298   690.126792   523.104779   573.642887   739.243999   417.683460   335.474238   663.628727   460.527949   199.618675  3928.190470
  0.475000   662.018955   661.688149   617.545508   507.465601   476.352125   484.234542   541.681871   837.997794   442.856997   760.029033   667.948499   797.952786   495.287515   535.593517   534.584709  1983.702779  1832.596511  2217.847854  2957.181036  4519.608915   788.074061  1613.938212  1032.107621   594.660342   543.677919   609.864295   623.093583   976.712629  1179.658398  2034.843415   278.766081   335.089639   521.783419   283.608064   371.043570   439.627953   330.367088   315.478928   352.669992   459.904559   719.793513   435.938984   407.634825   310.258623   318.445861   605.933331   434.162170   470.835380   260.153282   243.587140   277.226958   254.267380   236.571245   207.501277   246.190745   183.572825   268.470123   144.330170   119.713778   215.524193   214.344207   964.184850   962.797925  1089.031771  1050.647423   697.248951   530.383773   582.590885   746.715367   419.366248   338.351019   681.969747   461.454876   199.246146  3902.432621
  0.479000   665.821582   664.263815   621.053465   509.179123   478.928201   484.368503   544.095486   840.472430   444.708355   764.774755   668.359995   806.449503   496.234372   536.660962   536.133423  1992.782354  1842.815280  2232.672274  2981.112301  4550.783336   792.654976  1621.676385  1037.097573   596.504770   544.966571   612.801872   627.052635   979.409367  1185.460091  2059.763372   279.820245   337.789878   527.409352   286.122411   373.775475   444.345325   331.283025   317.489281   353.829712   464.571826   729.620159   443.163328   413.998142   313.372128   319.801718   612.022802   436.656028   473.975427   259.498935   243.376940   277.165789   253.161062   237.279497   206.839163   245.968401   184.384361   269.891322   144.772930   120.911980   215.623900   214.047898   975.181535   974.694341  1103.564054  1064.968109   701.811984   535.170212   588.543788   751.605704   420.439728   340.224653   693.461746   462.139621   199.047867  3883.314133
  0.484000   672.029182   668.831989   626.616031   512.168184   483.066291   484.727360   548.021756   844.261274   447.186567   772.144645   668.877587   819.742978   497.868620   538.281612   538.728423  2007.285506  1859.242916  2256.355286  3019.186556  4600.352347   800.326169  1634.303778  1045.045704   599.233620   546.765476   617.336072   633.309186   984.082893  1195.259169  2099.326253   281.872507   342.510268   536.566302   290.555321   378.546119   452.211536   333.038531   320.888944   355.964117   472.132079   745.288655   454.609655   424.922220   318.564363   322.584733   622.492023   441.472717   479.543358   258.763451   243.115388   277.245343   251.560248   238.112211   205.879398   245.651361   185.742900   272.223279   145.474765   122.822672   215.964075   213.728156   992.757976   993.557945  1126.848459  1087.840050   709.137172   542.879812   598.158985   759.426132   422.332995   343.341343   711.950287   463.330299   198.683795  3847.206831
  0.489000   679.564029   677.183941   632.108897   517.274998   487.572737   486.246236   552.676469   846.934617   445.992351   778.195113   668.329597   831.447914   500.541031   539.309569   542.396158  2022.458166  1877.253652  2281.155288  3057.810664  4650.411904   811.131969  1649.613529  1053.180248   600.365289   546.597801   620.830767   639.318824   991.856754  1209.699884  2138.798237   286.920462   350.652374   547.486544   298.475418   386.740565   463.045798   337.177292   325.931497   360.421687   480.869673   761.455297   465.846956   442.337245   325.719602   330.367275   639.289990   453.071706   489.713103   260.436684   243.427455   278.725512   251.191556   236.635078   205.654278   245.622955   187.652726   275.148321   146.165323   124.792568   217.742585   214.603804  1011.232510  1012.196019  1151.769236  1111.734286   717.085898   551.445186   609.048530   767.672062   425.720997   347.576626   732.340440   465.336815   197.928138  3765.651584
  0.494000   687.421486   686.307028   637.650043   522.820316   492.198393   487.994216   557.516553   849.436820   444.129482   784.073547   667.586103   842.995197   503.427424   540.242940   546.298549  2037.912756  1895.740032  2306.420505  3096.944094  4701.093435   822.620019  1665.571630  1061.433926   601.223707   546.077564   624.177568   645.349920  1000.269502  1225.132272  2178.677171   292.579085   359.514654   558.853783   307.125058   395.651422   474.540628   341.804810   331.334509   365.357623   489.919446   777.890980   477.171168   461.126082   333.315954   339.146852   657.421872   466.030873   500.830673   262.569748   243.854839   280.484352   251.044463   234.735925   205.565132   245.655328   189.689510   278.219655   146.867335   126.801291   219.806433   215.710923  1030.069217  1030.996218  1177.259460  1136.076748   725.234151   560.258776   620.287731   776.085034   429.416932   352.062583   753.307343   467.512049   197.098777  3675.011694
  0.499000   696.424320   696.539804   643.819347   529.436842   497.932211   490.753800   563.498847   852.023661   442.588776   790.117756   667.076632   855.313390   506.307259   541.338548   550.991409  2053.905278  1914.854497  2332.593948  3137.154281  4753.305614   835.506395  1682.866812  1069.728658   602.261946   545.822866   627.807453   651.872903  1009.060368  1242.252961  2220.239341   302.276984   372.545980   573.357940   319.946893   407.847054   488.940477   349.960923   339.273438   373.266973   500.818416   796.297118   489.726067   485.376827   343.665555   351.740234   680.145398   483.527966   515.172929   266.773123   246.053841   284.589715   251.818411   234.206282   206.750240   247.482061   193.276498   283.077694   148.760462   130.246747   223.602336   218.389817  1050.264165  1051.092222  1205.596849  1163.119227   734.229535   570.032038   632.866174   785.304159   433.986261   357.682779   778.512210   469.980240   197.107773  3567.433059
  0.503000   704.220608   704.694465   648.658350   535.911210   504.188091   495.353006   569.969825   853.478611   443.092436   793.373659   667.669475   863.382444   507.526994   542.383976   555.697754  2062.748671  1925.351769  2347.159088  3158.487976  4781.459868   845.819861  1694.929600  1073.516384   603.367724   546.657965   630.388707   656.412840  1014.128402  1255.370528  2244.230211   320.101082   392.265692   590.287037   339.582935   424.214378   505.009592   365.398638   351.285152   386.724137   511.828512   811.041370   499.415137   514.321178   357.464254   370.027013   705.484971   506.371967   532.252863   275.548212   252.985805   294.279661   255.235247   238.653999   211.553182   254.334062   200.073514   291.231349   153.613910   136.611108   231.081750   224.842429  1063.721403  1064.323559  1227.644235  1184.117049   741.034597   577.553697   642.893538   792.075470   438.907407   363.956876   803.866014   472.034700   199.950747  3464.067280
  0.508000   717.201158   718.100816   656.592473   546.871945   514.917672   503.547415   581.057556   855.709165   444.376767   798.313096   668.907091   876.184627   509.248711   544.147752   563.689843  2076.255828  1941.357255  2369.440049  3190.729320  4824.189544   862.785950  1714.305878  1078.996286   605.258085   548.303761   634.548813   663.701892  1021.947786  1276.795864  2281.258702   352.072716   427.152365   619.537644   374.354832   452.879034   532.641783   393.141732   372.534655   410.738923   530.542955   835.300162   515.259989   564.447865   381.616801   402.272753   749.054402   546.280667   561.826006   291.409213   265.751109   311.906878   261.592865   247.252155   220.468361   267.023928   212.288406   305.767879   162.477009   148.030650   244.555008   236.591361  1085.147485  1085.339710  1263.746768  1218.490377   752.125978   589.849427   659.379810   803.054795   447.335243   374.745578   846.943483   475.435033   205.373038  3289.477825
  0.513000   729.484782   730.943009   663.944036   557.271615   525.046177   511.322282   591.626242   857.484937   445.263870   802.596360   669.810995   887.679234   511.116311   545.728095   571.214110  2088.518590  1956.031770  2389.927655  3220.399618  4864.080250   878.774822  1732.669175  1083.619148   606.719963   549.469255   638.115928   670.432374  1029.157192  1297.001392  2315.940261   384.068526   461.763106   648.063496   409.088805   480.905175   559.863858   421.232171   393.380150   434.715860   548.571646   858.302936   530.335568   613.527671   405.524932   434.722342   791.655481   585.789420   590.949543   307.577029   278.670117   329.776667   268.155225   255.689789   229.193456   279.444940   224.337131   320.259482   171.359032   159.442797   257.924683   248.206034  1105.149835  1105.095744  1297.537088  1251.045913   762.805045   601.899214   675.412789   813.241601   455.244742   385.119058   890.109763   478.604995   210.499223  3122.865856
  0.518000   741.865709   745.093450   670.202971   567.924455   535.006374   519.205108   602.790304   856.794938   443.602689   804.071352   668.664202   894.733891   514.850914   546.649396   578.477308  2097.223997  1967.572272  2406.486720  3244.652450  4901.030064   894.434601  1751.525998  1084.215418   605.726540   547.648147   638.960898   676.014498  1035.119742  1316.929311  2348.788530   428.943187   508.243032   682.961270   457.429998   515.640751   595.194995   462.942906   419.680886   467.967279   569.065474   881.898627   546.201207   674.972236   437.297300   481.614321   844.624266   638.337806   628.633872   332.328901   297.753196   356.425308   278.739277   266.218856   239.973664   294.808410   239.982326   340.202563   183.873810   175.333656   275.855139   263.444334  1123.454943  1124.224067  1328.911632  1284.189373   774.993971   617.203750   694.862530   822.045282   462.676175   396.740660   951.498821   481.444821   215.491522  2944.911122
  0.523000   754.288733   759.667829   676.124915   578.665100   544.922128   527.128838   614.150874   855.329707   441.139638   804.664269   666.872710   900.395215   519.178621   547.364615   585.664213  2104.816437  1978.134811  2421.819568  3267.211318  4937.076271   909.996405  1770.548075  1083.545238   603.961684   544.888079   638.951063   681.239218  1040.694565  1336.780339  2381.078154   477.889553   558.477975   719.880909   510.074608   552.503243   633.094162   508.957952   447.710380   504.151918   590.345599   905.693769   562.324114   740.335286   471.559316   533.072203   900.879577   695.011988   669.028684   359.793864   318.785273   385.849141   290.594064   277.411323   251.406059   311.105382   256.766584   361.870751   197.537709   192.641225   295.228213   279.829763  1141.236946  1143.165454  1359.544545  1317.535937   787.667111   633.545369   715.402812   830.419213   469.962433   408.762433  1018.657535   484.184548   220.445413  2763.296664
  0.528000   768.341571   775.843710   683.259740   590.268560   555.968657   536.006130   626.609847   854.192004   439.008325   805.497020   665.471554   906.166062   524.730533   548.345111   593.579486  2112.952471  1989.194751  2437.513620  3289.371431  4974.296093   924.641863  1789.632440  1083.021164   602.776110   542.730540   639.349520   686.827898  1046.806276  1356.624663  2413.560897   525.369085   607.267469   756.315887   561.421923   588.473342   670.227930   553.780571   475.164428   539.429933   611.533523   929.696783   578.529239   804.111138   505.238250   583.425686   955.833718   750.089139   708.392635   386.892483   339.594521   414.842330   302.340239   288.536772   262.781978   327.247865   273.257550   383.287594   211.009178   209.626481   313.962437   295.832772  1159.480140  1162.399128  1390.841454  1351.152211   801.228508   651.519820   737.718120   839.185938   477.706715   421.239547  1087.021828   487.717204   225.794837  2582.923174
  0.533000   793.156251   802.378133   698.613673   607.531779   574.522950   551.170036   646.226853   855.663121   439.526848   808.418170   667.020157   913.450643   538.047440   551.197529   606.357343  2125.317752  2004.102021  2456.294447  3309.849501  5019.788742   933.277383  1809.033304  1084.182486   605.861396   545.093678   642.936230   695.027560  1056.689769  1376.467496  2447.638065   560.828038   644.358248   788.394883   601.739548   617.329851   700.837746   588.266589   497.828387   567.042120   631.664544   954.961553   595.132411   855.157003   533.644147   623.877123  1000.309289   792.253017   739.393979   410.026051   357.822515   439.409055   312.645920   298.841670   273.414049   341.837779   287.160743   402.061492   222.554542   223.673955   327.649079   308.653750  1181.070581  1183.670834  1426.954120  1386.435777   820.393339   679.711625   771.161169   850.795358   488.564186   436.502472  1160.085574   496.554263   233.783443  2412.836552
  0.538000   821.563900   832.369104   716.714412   626.681000   595.583208   568.433255   668.232292   858.008415   440.934077   812.037662   669.557080   921.236947   553.959943   554.675683   620.757043  2139.092535  2020.287514  2476.095408  3329.746127  5068.019032   939.887092  1828.523576  1085.908189   610.376820   548.971407   647.589713   704.096034  1067.830399  1396.292448  2482.221574   592.219867   677.488744   818.983167   638.317987   643.772706   729.230121   619.251020   518.863797   592.055880   651.422888   980.627760   611.854866   901.884064   560.254119   660.967305  1041.227505   830.043703   767.560378   431.807414   375.166982   462.467410   322.458781   308.861714   283.786543   355.893001   300.182365   419.930890   233.442523   236.722175   339.628831   320.394747  1203.766316  1205.608398  1464.651972  1422.248781   841.423199   711.311176   808.313340   863.348618   500.457101   452.686995  1234.660968   507.165231   242.650472  2246.347070
